( Absorption  1.0 0 201203212242 22.50000000 -156.50000000 -1 0 0 OMS01_00000 P 0035 )
0.00 37.26 37.26
6.87 37.23 37.24
10.00 37.25 37.24
20.00 37.26 37.25
30.00 37.24 37.25
50.00 37.23 37.24
75.00 37.21 37.24
100.00 37.22 37.23
125.00 37.25 37.23
150.00 37.24 37.23
200.00 36.69 37.17
250.00 35.39 36.94
300.00 33.50 36.53
400.00 30.44 35.39
500.00 28.02 34.16
600.00 26.52 33.01
700.00 25.57 32.01
800.00 24.95 31.17
900.00 24.34 30.44
1000.00 23.77 29.80
1100.00 23.26 29.23
1200.00 22.74 28.71
1300.00 22.27 28.24
1400.00 21.80 27.79
1500.00 21.37 27.38
1750.00 20.33 26.45
2000.00 19.48 25.63
2500.00 17.96 24.25
3000.00 16.69 23.09
3500.00 15.57 22.10
4000.00 14.55 21.22
4500.00 13.62 20.43
5000.00 12.76 19.70
5500.00 11.95 19.03
12000.00 7.34 13.95
