( Absorption  1.0 0 201203212242 22.50000000 -156.50000000 -1 0 0 OMS01_00000 P 0035 )
0.00 34.56 34.56
6.87 34.54 34.55
10.00 34.56 34.55
20.00 34.57 34.56
30.00 34.56 34.56
50.00 34.56 34.56
75.00 34.56 34.56
100.00 34.60 34.56
125.00 34.68 34.58
150.00 34.74 34.60
200.00 34.42 34.59
250.00 33.43 34.46
300.00 31.85 34.16
400.00 29.15 33.24
500.00 26.94 32.20
600.00 25.54 31.21
700.00 24.65 30.33
800.00 24.06 29.59
900.00 23.47 28.94
1000.00 22.93 28.37
1100.00 22.44 27.85
1200.00 21.94 27.38
1300.00 21.48 26.94
1400.00 21.03 26.54
1500.00 20.61 26.15
1750.00 19.61 25.29
2000.00 18.78 24.53
2500.00 17.30 23.23
3000.00 16.06 22.14
3500.00 14.97 21.19
4000.00 13.98 20.35
4500.00 13.07 19.59
5000.00 12.23 18.90
5500.00 11.44 18.26
12000.00 6.99 13.36
